# 1=wavelength (angstroms), 2=relative flux
 1100.00     0.000E+00
 1104.00     0.000E+00
 1108.00     0.000E+00
 1112.00     0.000E+00
 1116.00     0.000E+00
 1120.00     0.000E+00
 1124.00     0.000E+00
 1128.00     0.000E+00
 1132.00     0.000E+00
 1136.00     0.000E+00
 1140.00     0.000E+00
 1144.00     0.000E+00
 1148.00     0.000E+00
 1152.00     0.000E+00
 1156.00     0.000E+00
 1160.00     0.000E+00
 1164.00     0.000E+00
 1168.00     0.000E+00
 1172.00     0.000E+00
 1176.00     0.000E+00
 1180.00     0.000E+00
 1184.00     0.000E+00
 1188.00     0.000E+00
 1192.00     0.000E+00
 1196.00     0.000E+00
 1200.00     0.000E+00
 1204.00     0.000E+00
 1208.00     0.000E+00
 1212.00     0.000E+00
 1216.00     0.000E+00
 1220.00     0.000E+00
 1224.00     0.000E+00
 1228.00     0.000E+00
 1232.00     5.521E-15
 1236.00     5.548E-15
 1240.00     3.995E-15
 1244.00     3.786E-15
 1248.00     3.654E-15
 1252.00     5.167E-15
 1256.00     4.279E-15
 1260.00     3.067E-15
 1264.00     4.259E-15
 1268.00     5.404E-15
 1272.00     4.190E-15
 1276.00     6.226E-15
 1280.00     3.387E-15
 1284.00     3.716E-15
 1288.00     3.309E-15
 1292.00     3.343E-15
 1296.00     2.443E-15
 1300.00     2.915E-15
 1304.00     3.158E-15
 1308.00     2.024E-15
 1312.00     2.911E-15
 1316.00     3.179E-15
 1320.00     3.566E-15
 1324.00     3.049E-15
 1328.00     1.734E-15
 1332.00     2.541E-15
 1336.00     2.036E-15
 1340.00     2.955E-15
 1344.00     3.172E-15
 1348.00     2.956E-15
 1352.00     2.644E-15
 1356.00     3.044E-15
 1360.00     3.060E-15
 1364.00     1.993E-15
 1368.00     1.731E-15
 1372.00     2.382E-15
 1376.00     2.566E-15
 1380.00     3.066E-15
 1384.00     2.313E-15
 1388.00     1.602E-15
 1392.00     3.331E-15
 1396.00     2.807E-15
 1400.00     1.939E-15
 1404.00     1.489E-15
 1408.00     1.371E-15
 1412.00     2.996E-15
 1416.00     1.115E-15
 1420.00     3.089E-15
 1424.00     2.022E-15
 1428.00     2.849E-15
 1432.00     3.408E-15
 1436.00     2.112E-15
 1440.00     1.691E-15
 1444.00     3.880E-15
 1448.00     2.481E-15
 1452.00     2.194E-15
 1456.00     3.411E-15
 1460.00     3.048E-15
 1464.00     2.945E-15
 1468.00     2.757E-15
 1472.00     3.890E-15
 1476.00     3.257E-15
 1480.00     4.694E-15
 1484.00     3.260E-15
 1488.00     1.861E-15
 1492.00     2.720E-15
 1496.00     1.364E-15
 1500.00     2.344E-15
 1504.00     3.642E-15
 1508.00     3.517E-15
 1512.00     1.521E-15
 1516.00     1.930E-15
 1520.00     1.825E-15
 1524.00     2.158E-15
 1528.00     2.981E-15
 1532.00     4.440E-15
 1536.00     2.145E-15
 1540.00     1.708E-15
 1544.00     3.039E-15
 1548.00     4.010E-15
 1552.00     2.010E-15
 1556.00     1.975E-15
 1560.00     1.115E-15
 1564.00     1.722E-15
 1568.00     1.686E-15
 1572.00     2.546E-15
 1576.00     2.388E-15
 1580.00     2.499E-15
 1584.00     2.129E-15
 1588.00     2.645E-15
 1592.00     4.848E-15
 1596.00     3.454E-15
 1600.00     2.570E-15
 1604.00     1.609E-15
 1608.00     1.137E-15
 1612.00     2.506E-15
 1616.00     2.111E-15
 1620.00     2.271E-15
 1624.00     2.291E-15
 1628.00     1.112E-15
 1632.00     1.965E-15
 1636.00     1.988E-15
 1640.00     3.897E-15
 1644.00     2.646E-15
 1648.00     4.459E-15
 1652.00     2.193E-15
 1656.00     1.904E-15
 1660.00     3.056E-15
 1664.00     2.862E-15
 1668.00     2.811E-15
 1672.00     1.817E-15
 1676.00     8.716E-16
 1680.00     1.477E-15
 1684.00     2.208E-15
 1688.00     2.383E-15
 1692.00     1.219E-15
 1696.00     1.491E-15
 1700.00     1.858E-15
 1704.00     1.905E-15
 1708.00     2.023E-15
 1712.00     1.229E-15
 1716.00     2.788E-15
 1720.00     3.658E-15
 1724.00     3.084E-15
 1728.00     2.994E-15
 1732.00     4.650E-15
 1736.00     2.688E-15
 1740.00     2.129E-15
 1744.00     1.135E-15
 1748.00     2.749E-15
 1752.00     1.948E-15
 1756.00     2.439E-15
 1760.00     2.777E-15
 1764.00     1.123E-15
 1768.00     2.489E-15
 1772.00     2.876E-15
 1776.00     2.144E-15
 1780.00     2.113E-15
 1784.00     2.041E-15
 1788.00     2.251E-15
 1792.00     2.438E-15
 1796.00     2.331E-15
 1800.00     2.778E-15
 1804.00     4.674E-15
 1808.00     4.665E-15
 1812.00     3.472E-15
 1816.00     2.497E-15
 1820.00     1.178E-15
 1824.00     1.375E-15
 1828.00     2.071E-15
 1832.00     1.629E-15
 1836.00     1.006E-15
 1840.00     1.191E-15
 1844.00     9.092E-16
 1848.00     8.501E-16
 1852.00     1.502E-15
 1856.00     1.888E-15
 1860.00     2.073E-15
 1864.00     1.307E-15
 1868.00     2.032E-15
 1872.00     1.108E-15
 1876.00     1.304E-15
 1880.00     1.249E-15
 1884.00     1.626E-15
 1888.00     1.512E-15
 1892.00     1.525E-15
 1896.00     1.291E-15
 1900.00     1.455E-15
 1904.00     1.675E-15
 1908.00     1.313E-15
 1912.00     9.207E-16
 1916.00     1.034E-15
 1920.00     9.360E-16
 1924.00     9.052E-16
 1928.00     8.966E-16
 1932.00     1.162E-15
 1936.00     2.178E-15
 1940.00     2.755E-15
 1944.00     2.877E-15
 1948.00     2.202E-15
 1952.00     2.855E-15
 1956.00     3.011E-15
 1960.00     5.656E-15
 1964.00     3.666E-15
 1968.00     4.176E-15
 1972.00     7.445E-16
 1976.00     8.494E-16
 1980.00     1.856E-15
 1984.00     8.458E-16
 1988.00     2.289E-15
 1992.00     5.281E-15
 1996.00     4.068E-15
 2000.00     2.877E-15
 2004.00     1.207E-15
 2008.00     2.172E-15
 2012.00     9.500E-16
 2016.00     1.236E-15
 2020.00     2.753E-15
 2024.00     5.860E-15
 2028.00     1.419E-15
 2032.00     1.681E-15
 2036.00     6.399E-15
 2040.00     6.564E-16
 2044.00     2.028E-15
 2048.00     4.343E-15
 2052.00     1.495E-15
 2056.00     8.651E-15
 2060.00     2.226E-15
 2064.00     2.907E-15
 2068.00     3.954E-15
 2072.00     4.992E-15
 2076.00     2.367E-15
 2080.00     6.040E-15
 2084.00     2.449E-15
 2088.00     1.683E-15
 2092.00     1.758E-15
 2096.00     1.353E-17
 2100.00     1.802E-15
 2104.00     1.374E-15
 2108.00     9.637E-16
 2112.00     1.101E-15
 2116.00     1.099E-15
 2120.00     4.927E-15
 2124.00     2.101E-15
 2128.00     1.669E-15
 2132.00     1.686E-15
 2136.00     3.390E-15
 2140.00     4.668E-15
 2144.00     1.808E-15
 2148.00     6.892E-16
 2152.00     1.450E-15
 2156.00     1.488E-15
 2160.00     1.520E-15
 2164.00     6.382E-15
 2168.00     2.604E-15
 2172.00     4.186E-15
 2176.00     2.112E-15
 2180.00     2.328E-15
 2184.00     3.859E-15
 2188.00     1.044E-15
 2192.00     3.345E-15
 2196.00     2.741E-15
 2200.00     5.132E-15
 2204.00     4.321E-15
 2208.00     2.439E-15
 2212.00     9.812E-16
 2216.00     3.455E-15
 2220.00     4.878E-15
 2224.00     3.041E-15
 2228.00     1.250E-15
 2232.00     5.237E-15
 2236.00     3.764E-15
 2240.00     5.355E-15
 2244.00     3.418E-15
 2248.00     2.859E-15
 2252.00     7.304E-15
 2256.00     1.536E-15
 2260.00     1.557E-15
 2264.00     2.281E-15
 2268.00     1.457E-15
 2272.00     7.654E-15
 2276.00     2.884E-15
 2280.00     3.146E-15
 2284.00     2.320E-15
 2288.00     4.178E-15
 2292.00     2.632E-15
 2296.00     8.864E-16
 2300.00     1.482E-15
 2304.00     5.105E-15
 2308.00     1.200E-15
 2312.00     4.175E-15
 2316.00     1.314E-15
 2320.00     2.921E-15
 2324.00     2.395E-15
 2328.00     2.187E-15
 2332.00     2.076E-15
 2336.00     1.569E-15
 2340.00     8.799E-16
 2344.00     2.162E-15
 2348.00     1.531E-15
 2352.00     1.433E-15
 2356.00     1.006E-15
 2360.00     1.740E-15
 2364.00     6.178E-16
 2368.00     2.360E-15
 2372.00     8.162E-16
 2376.00     5.455E-16
 2380.00     3.169E-15
 2384.00     8.269E-16
 2388.00     8.284E-16
 2392.00     1.248E-15
 2396.00     1.567E-15
 2400.00     1.227E-15
 2404.00     1.640E-15
 2408.00     8.673E-16
 2412.00     1.789E-15
 2416.00     1.711E-15
 2420.00     1.627E-15
 2424.00     2.106E-15
 2428.00     2.645E-15
 2432.00     1.168E-15
 2436.00     1.567E-15
 2440.00     2.091E-15
 2444.00     3.002E-15
 2448.00     1.873E-15
 2452.00     1.763E-15
 2456.00     1.560E-15
 2460.00     7.724E-16
 2464.00     1.504E-15
 2468.00     1.561E-15
 2472.00     1.595E-15
 2476.00     1.651E-15
 2480.00     1.149E-15
 2484.00     1.842E-15
 2488.00     7.067E-16
 2492.00     2.284E-15
 2496.00     1.421E-15
 2500.00     8.136E-16
 2504.00     1.374E-15
 2508.00     1.461E-15
 2512.00     9.599E-16
 2516.00     1.314E-15
 2520.00     6.232E-16
 2524.00     9.141E-16
 2528.00     6.656E-16
 2532.00     1.274E-15
 2536.00     1.537E-15
 2540.00     1.457E-15
 2544.00     1.010E-15
 2548.00     1.483E-15
 2552.00     1.469E-15
 2556.00     7.171E-16
 2560.00     1.049E-15
 2564.00     1.753E-15
 2568.00     7.850E-16
 2572.00     2.115E-15
 2576.00     1.163E-15
 2580.00     1.758E-15
 2584.00     2.075E-15
 2588.00     1.251E-15
 2592.00     2.199E-15
 2596.00     1.940E-15
 2600.00     2.031E-15
 2604.00     1.102E-15
 2608.00     2.287E-15
 2612.00     2.038E-15
 2616.00     2.046E-15
 2620.00     9.901E-16
 2624.00     2.042E-15
 2628.00     1.898E-15
 2632.00     2.868E-15
 2636.00     2.329E-15
 2640.00     2.291E-15
 2644.00     2.725E-15
 2648.00     3.449E-15
 2652.00     2.538E-15
 2656.00     3.146E-15
 2660.00     2.664E-15
 2664.00     2.359E-15
 2668.00     2.659E-15
 2672.00     2.254E-15
 2676.00     2.069E-15
 2680.00     2.389E-15
 2684.00     2.507E-15
 2688.00     3.267E-15
 2692.00     2.976E-15
 2696.00     2.987E-15
 2700.00     2.666E-15
 2704.00     2.773E-15
 2708.00     2.104E-15
 2712.00     2.260E-15
 2716.00     1.970E-15
 2720.00     2.441E-15
 2724.00     1.690E-15
 2728.00     1.689E-15
 2732.00     1.886E-15
 2736.00     2.329E-15
 2740.00     1.920E-15
 2744.00     1.817E-15
 2748.00     1.736E-15
 2752.00     2.626E-15
 2756.00     2.685E-15
 2760.00     2.477E-15
 2764.00     2.497E-15
 2768.00     2.566E-15
 2772.00     2.594E-15
 2776.00     2.209E-15
 2780.00     2.689E-15
 2784.00     1.559E-15
 2788.00     1.376E-15
 2792.00     1.612E-15
 2796.00     1.497E-15
 2800.00     1.621E-15
 2804.00     1.482E-15
 2808.00     1.905E-15
 2812.00     2.700E-15
 2816.00     2.254E-15
 2820.00     2.694E-15
 2824.00     2.939E-15
 2828.00     2.706E-15
 2832.00     2.619E-15
 2836.00     2.624E-15
 2840.00     2.635E-15
 2844.00     2.344E-15
 2848.00     2.174E-15
 2852.00     2.001E-15
 2856.00     2.462E-15
 2860.00     2.672E-15
 2864.00     2.749E-15
 2868.00     2.683E-15
 2872.00     2.729E-15
 2876.00     3.651E-15
 2880.00     3.288E-15
 2884.00     3.111E-15
 2888.00     2.705E-15
 2892.00     3.560E-15
 2896.00     4.066E-15
 2900.00     4.305E-15
 2904.00     4.529E-15
 2908.00     4.297E-15
 2912.00     3.890E-15
 2916.00     4.067E-15
 2920.00     3.657E-15
 2924.00     3.710E-15
 2928.00     4.079E-15
 2932.00     3.531E-15
 2936.00     3.407E-15
 2940.00     4.409E-15
 2944.00     4.669E-15
 2948.00     3.812E-15
 2952.00     4.511E-15
 2956.00     4.422E-15
 2960.00     3.832E-15
 2964.00     4.077E-15
 2968.00     4.684E-15
 2972.00     4.362E-15
 2976.00     4.439E-15
 2980.00     4.235E-15
 2984.00     3.870E-15
 2988.00     3.674E-15
 2992.00     3.281E-15
 2996.00     2.886E-15
 3000.00     3.420E-15
 3004.00     4.436E-15
 3008.00     5.084E-15
 3012.00     5.071E-15
 3016.00     4.479E-15
 3020.00     4.264E-15
 3024.00     4.263E-15
 3028.00     4.492E-15
 3032.00     4.015E-15
 3036.00     4.012E-15
 3040.00     4.378E-15
 3044.00     4.626E-15
 3048.00     5.443E-15
 3052.00     4.117E-15
 3056.00     3.784E-15
 3060.00     5.409E-15
 3064.00     5.579E-15
 3068.00     5.340E-15
 3072.00     5.581E-15
 3076.00     4.865E-15
 3080.00     4.723E-15
 3084.00     4.672E-15
 3088.00     3.908E-15
 3092.00     2.828E-15
 3096.00     4.959E-15
 3100.00     5.572E-15
 3104.00     7.018E-15
 3108.00     4.294E-15
 3112.00     3.165E-15
 3116.00     5.161E-15
 3120.00     5.274E-15
 3124.00     5.809E-15
 3128.00     3.952E-15
 3132.00     3.938E-15
 3136.00     3.382E-15
 3140.00     4.177E-15
 3144.00     4.192E-15
 3148.00     4.769E-15
 3152.00     4.314E-15
 3156.00     2.642E-15
 3160.00     3.045E-15
 3164.00     4.053E-15
 3168.00     5.176E-15
 3172.00     6.048E-15
 3176.00     4.986E-15
 3180.00     3.974E-15
 3184.00     4.930E-15
 3188.00     4.590E-15
 3192.00     5.800E-15
 3196.00     7.093E-15
 3200.00     7.955E-15
 3204.00     8.332E-15
 3208.00     7.259E-15
 3212.00     6.639E-15
 3216.00     6.019E-15
 3220.00     1.116E-14
 3224.00     1.286E-14
 3228.00     9.842E-15
 3232.00     5.218E-15
 3236.00     5.967E-15
 3240.00     6.508E-15
 3244.00     7.351E-15
 3248.00     1.089E-14
 3252.00     6.290E-15
 3256.00     6.620E-15
 3260.00     8.742E-15
 3264.00     7.222E-15
 3268.00     8.764E-15
 3272.00     9.586E-15
 3276.00     9.253E-15
 3280.00     9.710E-15
 3284.00     1.120E-14
 3288.00     1.143E-14
 3292.00     1.198E-14
 3296.00     1.218E-14
 3300.00     1.242E-14
 3304.00     1.272E-14
 3308.00     1.265E-14
 3312.00     1.208E-14
 3316.00     1.188E-14
 3320.00     1.183E-14
 3324.00     1.134E-14
 3328.00     1.144E-14
 3332.00     1.122E-14
 3336.00     1.088E-14
 3340.00     1.122E-14
 3344.00     1.141E-14
 3348.00     1.114E-14
 3352.00     1.101E-14
 3356.00     1.117E-14
 3360.00     1.087E-14
 3364.00     1.027E-14
 3368.00     1.007E-14
 3372.00     1.015E-14
 3376.00     1.006E-14
 3380.00     1.005E-14
 3384.00     1.052E-14
 3388.00     1.098E-14
 3392.00     1.101E-14
 3396.00     1.123E-14
 3400.00     1.203E-14
 3404.00     1.238E-14
 3408.00     1.196E-14
 3412.00     1.189E-14
 3416.00     1.191E-14
 3420.00     1.172E-14
 3424.00     1.151E-14
 3428.00     1.195E-14
 3432.00     1.228E-14
 3436.00     1.205E-14
 3440.00     1.182E-14
 3444.00     1.155E-14
 3448.00     1.120E-14
 3452.00     1.132E-14
 3456.00     1.156E-14
 3460.00     1.146E-14
 3464.00     1.149E-14
 3468.00     1.162E-14
 3472.00     1.191E-14
 3476.00     1.184E-14
 3480.00     1.189E-14
 3484.00     1.189E-14
 3488.00     1.181E-14
 3492.00     1.220E-14
 3496.00     1.235E-14
 3500.00     1.196E-14
 3504.00     1.189E-14
 3508.00     1.255E-14
 3512.00     1.301E-14
 3516.00     1.299E-14
 3520.00     1.289E-14
 3524.00     1.267E-14
 3528.00     1.244E-14
 3532.00     1.277E-14
 3536.00     1.311E-14
 3540.00     1.326E-14
 3544.00     1.336E-14
 3548.00     1.351E-14
 3552.00     1.370E-14
 3556.00     1.323E-14
 3560.00     1.264E-14
 3564.00     1.241E-14
 3568.00     1.190E-14
 3572.00     1.112E-14
 3576.00     1.058E-14
 3580.00     1.005E-14
 3584.00     9.518E-15
 3588.00     9.638E-15
 3592.00     1.043E-14
 3596.00     1.119E-14
 3600.00     1.202E-14
 3604.00     1.268E-14
 3608.00     1.319E-14
 3612.00     1.347E-14
 3616.00     1.360E-14
 3620.00     1.381E-14
 3624.00     1.405E-14
 3628.00     1.448E-14
 3632.00     1.481E-14
 3636.00     1.475E-14
 3640.00     1.474E-14
 3644.00     1.499E-14
 3648.00     1.521E-14
 3652.00     1.536E-14
 3656.00     1.581E-14
 3660.00     1.641E-14
 3664.00     1.734E-14
 3668.00     1.777E-14
 3672.00     1.846E-14
 3676.00     1.725E-14
 3680.00     1.701E-14
 3684.00     1.605E-14
 3688.00     1.617E-14
 3692.00     1.736E-14
 3696.00     1.725E-14
 3700.00     1.796E-14
 3704.00     1.729E-14
 3708.00     1.747E-14
 3712.00     1.679E-14
 3716.00     1.800E-14
 3720.00     1.556E-14
 3724.00     1.612E-14
 3728.00     1.676E-14
 3732.00     1.566E-14
 3736.00     1.467E-14
 3740.00     1.282E-14
 3744.00     1.304E-14
 3748.00     1.288E-14
 3752.00     1.295E-14
 3756.00     1.444E-14
 3760.00     1.502E-14
 3764.00     1.575E-14
 3768.00     1.396E-14
 3772.00     1.571E-14
 3776.00     1.781E-14
 3780.00     1.838E-14
 3784.00     1.840E-14
 3788.00     1.707E-14
 3792.00     1.595E-14
 3796.00     1.581E-14
 3800.00     1.454E-14
 3804.00     1.564E-14
 3808.00     1.703E-14
 3812.00     1.561E-14
 3816.00     1.433E-14
 3820.00     1.272E-14
 3824.00     1.139E-14
 3828.00     1.016E-14
 3832.00     9.542E-15
 3836.00     9.067E-15
 3840.00     1.022E-14
 3844.00     1.178E-14
 3848.00     1.202E-14
 3852.00     1.303E-14
 3856.00     1.254E-14
 3860.00     1.244E-14
 3864.00     1.349E-14
 3868.00     1.337E-14
 3872.00     1.319E-14
 3876.00     1.351E-14
 3880.00     1.332E-14
 3884.00     1.474E-14
 3888.00     1.600E-14
 3892.00     1.708E-14
 3896.00     1.817E-14
 3900.00     1.826E-14
 3904.00     1.859E-14
 3908.00     1.916E-14
 3912.00     2.027E-14
 3916.00     1.994E-14
 3920.00     1.823E-14
 3924.00     1.569E-14
 3928.00     1.227E-14
 3932.00     1.029E-14
 3936.00     1.002E-14
 3940.00     1.216E-14
 3944.00     1.508E-14
 3948.00     1.788E-14
 3952.00     1.901E-14
 3956.00     1.891E-14
 3960.00     1.528E-14
 3964.00     1.266E-14
 3968.00     1.136E-14
 3972.00     1.279E-14
 3976.00     1.718E-14
 3980.00     2.127E-14
 3984.00     2.391E-14
 3988.00     2.484E-14
 3992.00     2.570E-14
 3996.00     2.721E-14
 4000.00     2.784E-14
 4004.00     2.839E-14
 4008.00     2.969E-14
 4012.00     2.884E-14
 4016.00     3.113E-14
 4020.00     2.999E-14
 4024.00     2.935E-14
 4028.00     2.749E-14
 4032.00     2.833E-14
 4036.00     2.799E-14
 4040.00     2.829E-14
 4044.00     2.750E-14
 4048.00     2.730E-14
 4052.00     2.731E-14
 4056.00     2.845E-14
 4060.00     2.711E-14
 4064.00     2.675E-14
 4068.00     2.685E-14
 4072.00     2.718E-14
 4076.00     2.747E-14
 4080.00     2.843E-14
 4084.00     2.995E-14
 4088.00     3.042E-14
 4092.00     3.072E-14
 4096.00     2.912E-14
 4100.00     2.693E-14
 4104.00     2.574E-14
 4108.00     2.813E-14
 4112.00     2.800E-14
 4116.00     2.868E-14
 4120.00     2.825E-14
 4124.00     2.888E-14
 4128.00     2.864E-14
 4132.00     2.803E-14
 4136.00     2.761E-14
 4140.00     2.697E-14
 4144.00     2.753E-14
 4148.00     2.755E-14
 4152.00     2.586E-14
 4156.00     2.677E-14
 4160.00     2.713E-14
 4164.00     2.772E-14
 4168.00     2.795E-14
 4172.00     2.631E-14
 4176.00     2.685E-14
 4180.00     2.664E-14
 4184.00     2.749E-14
 4188.00     2.736E-14
 4192.00     2.782E-14
 4196.00     2.742E-14
 4200.00     2.733E-14
 4204.00     2.829E-14
 4208.00     2.948E-14
 4212.00     3.009E-14
 4216.00     3.011E-14
 4220.00     2.987E-14
 4224.00     2.867E-14
 4228.00     2.749E-14
 4232.00     2.857E-14
 4236.00     3.037E-14
 4240.00     3.226E-14
 4244.00     3.288E-14
 4248.00     3.263E-14
 4252.00     3.201E-14
 4256.00     3.131E-14
 4260.00     3.266E-14
 4264.00     3.342E-14
 4268.00     3.192E-14
 4272.00     3.113E-14
 4276.00     2.999E-14
 4280.00     3.129E-14
 4284.00     3.170E-14
 4288.00     3.054E-14
 4292.00     2.882E-14
 4296.00     2.750E-14
 4300.00     2.538E-14
 4304.00     2.440E-14
 4308.00     2.486E-14
 4312.00     2.854E-14
 4316.00     3.225E-14
 4320.00     3.445E-14
 4324.00     3.533E-14
 4328.00     3.508E-14
 4332.00     3.634E-14
 4336.00     3.654E-14
 4340.00     3.610E-14
 4344.00     3.654E-14
 4348.00     3.662E-14
 4352.00     3.662E-14
 4356.00     3.724E-14
 4360.00     3.894E-14
 4364.00     3.928E-14
 4368.00     3.930E-14
 4372.00     3.723E-14
 4376.00     3.608E-14
 4380.00     3.449E-14
 4384.00     3.309E-14
 4388.00     3.338E-14
 4392.00     3.466E-14
 4396.00     3.580E-14
 4400.00     3.694E-14
 4404.00     3.533E-14
 4408.00     3.648E-14
 4412.00     3.716E-14
 4416.00     3.857E-14
 4420.00     3.891E-14
 4424.00     3.885E-14
 4428.00     3.878E-14
 4432.00     3.936E-14
 4436.00     3.904E-14
 4440.00     3.918E-14
 4444.00     4.023E-14
 4448.00     4.036E-14
 4452.00     4.044E-14
 4456.00     3.864E-14
 4460.00     3.740E-14
 4464.00     3.864E-14
 4468.00     4.015E-14
 4472.00     4.167E-14
 4476.00     4.260E-14
 4480.00     4.349E-14
 4484.00     4.357E-14
 4488.00     4.313E-14
 4492.00     4.302E-14
 4496.00     4.430E-14
 4500.00     4.488E-14
 4504.00     4.670E-14
 4508.00     4.752E-14
 4512.00     4.772E-14
 4516.00     4.664E-14
 4520.00     4.545E-14
 4524.00     4.313E-14
 4528.00     4.083E-14
 4532.00     4.045E-14
 4536.00     4.161E-14
 4540.00     4.323E-14
 4544.00     4.339E-14
 4548.00     4.340E-14
 4552.00     4.407E-14
 4556.00     4.593E-14
 4560.00     4.699E-14
 4564.00     4.734E-14
